wavelength_nm,intensity
335.000000,0.000330
335.200000,0.000290
335.400000,0.000290
335.600000,0.000301
335.800000,0.000336
336.000000,0.000348
336.200000,0.000353
336.400000,0.000353
336.600000,0.000348
336.800000,0.000330
337.000000,0.000336
337.200000,0.000319
337.400000,0.000336
337.600000,0.000348
337.800000,0.000342
338.000000,0.000348
338.200000,0.000394
338.400000,0.000388
338.600000,0.000429
338.800000,0.000411
339.000000,0.000440
339.200000,0.000475
339.400000,0.000463
339.600000,0.000463
339.800000,0.000475
340.000000,0.000527
340.200000,0.000597
340.400000,0.000643
340.600000,0.000614
340.800000,0.000637
341.000000,0.000626
341.200000,0.000631
341.400000,0.000678
341.600000,0.000695
341.800000,0.000736
342.000000,0.000742
342.200000,0.000759
342.400000,0.000886
342.600000,0.000973
342.800000,0.001000
343.000000,0.001090
343.200000,0.001210
343.400000,0.001330
343.600000,0.001400
343.800000,0.001540
344.000000,0.001670
344.200000,0.001710
344.400000,0.001830
344.600000,0.001960
344.800000,0.001990
345.000000,0.002160
345.200000,0.002270
345.400000,0.002380
345.600000,0.002560
345.800000,0.002720
346.000000,0.002990
346.200000,0.003270
346.400000,0.003480
346.600000,0.003720
346.800000,0.003860
347.000000,0.004220
347.200000,0.004530
347.400000,0.004910
347.600000,0.005200
347.800000,0.005780
348.000000,0.006200
348.200000,0.006730
348.400000,0.007250
348.600000,0.007660
348.800000,0.008310
349.000000,0.008930
349.200000,0.009400
349.400000,0.009880
349.600000,0.010650
349.800000,0.011490
350.000000,0.012290
350.200000,0.013180
350.400000,0.014080
350.600000,0.014760
350.800000,0.015730
351.000000,0.017320
351.200000,0.018310
351.400000,0.019720
351.600000,0.020840
351.800000,0.022210
352.000000,0.023780
352.200000,0.025540
352.400000,0.026980
352.600000,0.028690
352.800000,0.030220
353.000000,0.032580
353.200000,0.034270
353.400000,0.036710
353.600000,0.038930
353.800000,0.041460
354.000000,0.044220
354.200000,0.046890
354.400000,0.049510
354.600000,0.052730
354.800000,0.055970
355.000000,0.059310
355.200000,0.062560
355.400000,0.066330
355.600000,0.070080
355.800000,0.074290
356.000000,0.078370
356.200000,0.082710
356.400000,0.088510
356.600000,0.093540
356.800000,0.099400
357.000000,0.105130
357.200000,0.111310
357.400000,0.117390
357.600000,0.124690
357.800000,0.131940
358.000000,0.138910
358.200000,0.146530
358.400000,0.155590
358.600000,0.163450
358.800000,0.171330
359.000000,0.178950
359.200000,0.188930
359.400000,0.198240
359.600000,0.208330
359.800000,0.218800
360.000000,0.228690
360.200000,0.239200
360.400000,0.251560
360.600000,0.261910
360.800000,0.274390
361.000000,0.286630
361.200000,0.299330
361.400000,0.309830
361.600000,0.323500
361.800000,0.336130
362.000000,0.350670
362.200000,0.365610
362.400000,0.383540
362.600000,0.398270
362.800000,0.413980
363.000000,0.429720
363.200000,0.445770
363.400000,0.461210
363.600000,0.478140
363.800000,0.494520
364.000000,0.509920
364.200000,0.522840
364.400000,0.540070
364.600000,0.557330
364.800000,0.570560
365.000000,0.585930
365.200000,0.601660
365.400000,0.615260
365.600000,0.632890
365.800000,0.648930
366.000000,0.665860
366.200000,0.681210
366.400000,0.692220
366.600000,0.705520
366.800000,0.723400
367.000000,0.734970
367.200000,0.748890
367.400000,0.762550
367.600000,0.774130
367.800000,0.788200
368.000000,0.803420
368.200000,0.812120
368.400000,0.824600
368.600000,0.836890
368.800000,0.850340
369.000000,0.861860
369.200000,0.871850
369.400000,0.878120
369.600000,0.890770
369.800000,0.900870
370.000000,0.905340
370.200000,0.914050
370.400000,0.921930
370.600000,0.928110
370.800000,0.933500
371.000000,0.940720
371.200000,0.945450
371.400000,0.951120
371.600000,0.957840
371.800000,0.960440
372.000000,0.969860
372.200000,0.972190
372.400000,0.978750
372.600000,0.979350
372.800000,0.982810
373.000000,0.986040
373.200000,0.987710
373.400000,0.989860
373.600000,0.993140
373.800000,0.992460
374.000000,0.997260
374.200000,1.000000
374.400000,0.999460
374.600000,0.995830
374.800000,0.996260
375.000000,0.993970
375.200000,0.994330
375.400000,0.991750
375.600000,0.992970
375.800000,0.992830
376.000000,0.991080
376.200000,0.987900
376.400000,0.986080
376.600000,0.983150
376.800000,0.981140
377.000000,0.977810
377.200000,0.975850
377.400000,0.973430
377.600000,0.972410
377.800000,0.968580
378.000000,0.964900
378.200000,0.960800
378.400000,0.957750
378.600000,0.951680
378.800000,0.947660
379.000000,0.942910
379.200000,0.940140
379.400000,0.932760
379.600000,0.929480
379.800000,0.927030
380.000000,0.923250
380.200000,0.917060
380.400000,0.911110
380.600000,0.905470
380.800000,0.902680
381.000000,0.896580
381.200000,0.894750
381.400000,0.888820
381.600000,0.887180
381.800000,0.878190
382.000000,0.877240
382.200000,0.871080
382.400000,0.865800
382.600000,0.861410
382.800000,0.858440
383.000000,0.851340
383.200000,0.845990
383.400000,0.841310
383.600000,0.837590
383.800000,0.833960
384.000000,0.829870
384.200000,0.827990
384.400000,0.824430
384.600000,0.822150
384.800000,0.817290
385.000000,0.813240
385.200000,0.810670
385.400000,0.805540
385.600000,0.801390
385.800000,0.797680
386.000000,0.796020
386.200000,0.791370
386.400000,0.788190
386.600000,0.783450
386.800000,0.780620
387.000000,0.778830
387.200000,0.776110
387.400000,0.772260
387.600000,0.769590
387.800000,0.767000
388.000000,0.762070
388.200000,0.759140
388.400000,0.753810
388.600000,0.750800
388.800000,0.748230
389.000000,0.744080
389.200000,0.742860
389.400000,0.741250
389.600000,0.739520
389.800000,0.735680
390.000000,0.733050
390.200000,0.731150
390.400000,0.730320
390.600000,0.725330
390.800000,0.723920
391.000000,0.721640
391.200000,0.721390
391.400000,0.717580
391.600000,0.716430
391.800000,0.713830
392.000000,0.709500
392.200000,0.707750
392.400000,0.706320
392.600000,0.702210
392.800000,0.699170
393.000000,0.696120
393.200000,0.695960
393.400000,0.692970
393.600000,0.691460
393.800000,0.690850
394.000000,0.686190
394.200000,0.684950
394.400000,0.685160
394.600000,0.680050
394.800000,0.676860
395.000000,0.675080
395.200000,0.673000
395.400000,0.669770
395.600000,0.666070
395.800000,0.663000
396.000000,0.658430
396.200000,0.655520
396.400000,0.651780
396.600000,0.649260
396.800000,0.646890
397.000000,0.643970
397.200000,0.640740
397.400000,0.636320
397.600000,0.633770
397.800000,0.631020
398.000000,0.630100
398.200000,0.625610
398.400000,0.621900
398.600000,0.619300
398.800000,0.615090
399.000000,0.612310
399.200000,0.611710
399.400000,0.605210
399.600000,0.600700
399.800000,0.595280
400.000000,0.593180
400.200000,0.590500
400.400000,0.588250
400.600000,0.582680
400.800000,0.579150
401.000000,0.574870
401.200000,0.568230
401.400000,0.564520
401.600000,0.560250
401.800000,0.557450
402.000000,0.554550
402.200000,0.550370
402.400000,0.546480
402.600000,0.540950
402.800000,0.538800
403.000000,0.534220
403.200000,0.529560
403.400000,0.525680
403.600000,0.521770
403.800000,0.517530
404.000000,0.514410
404.200000,0.510740
404.400000,0.506410
404.600000,0.501890
404.800000,0.498960
405.000000,0.494920
405.200000,0.491560
405.400000,0.487650
405.600000,0.483090
405.800000,0.478930
406.000000,0.474610
406.200000,0.471980
406.400000,0.468100
406.600000,0.464420
406.800000,0.461550
407.000000,0.457420
407.200000,0.452960
407.400000,0.446770
407.600000,0.443310
407.800000,0.438650
408.000000,0.435170
408.200000,0.433950
408.400000,0.430880
408.600000,0.426610
408.800000,0.422510
409.000000,0.418980
409.200000,0.416780
409.400000,0.413150
409.600000,0.409850
409.800000,0.405750
410.000000,0.401970
410.200000,0.398440
410.400000,0.393000
410.600000,0.390440
410.800000,0.386230
411.000000,0.384330
411.200000,0.380780
411.400000,0.378010
411.600000,0.375570
411.800000,0.372580
412.000000,0.370900
412.200000,0.366250
412.400000,0.363620
412.600000,0.359890
412.800000,0.357370
413.000000,0.355190
413.200000,0.351640
413.400000,0.348060
413.600000,0.345570
413.800000,0.342410
414.000000,0.339420
414.200000,0.336630
414.400000,0.333740
414.600000,0.330960
414.800000,0.328700
415.000000,0.325910
415.200000,0.323270
415.400000,0.321390
415.600000,0.320160
415.800000,0.317210
416.000000,0.314380
416.200000,0.312530
416.400000,0.311000
416.600000,0.307610
416.800000,0.305470
417.000000,0.302840
417.200000,0.299940
417.400000,0.297690
417.600000,0.296890
417.800000,0.294100
418.000000,0.292200
418.200000,0.288740
418.400000,0.287070
418.600000,0.284760
418.800000,0.282490
419.000000,0.280010
419.200000,0.277850
419.400000,0.275770
419.600000,0.273780
419.800000,0.271890
420.000000,0.269910
420.200000,0.266730
420.400000,0.264970
420.600000,0.262730
420.800000,0.260400
421.000000,0.258550
421.200000,0.256170
421.400000,0.253540
421.600000,0.251720
421.800000,0.250520
422.000000,0.248840
422.200000,0.246410
422.400000,0.243740
422.600000,0.241300
422.800000,0.239990
423.000000,0.237570
423.200000,0.235960
423.400000,0.235590
423.600000,0.233280
423.800000,0.230830
424.000000,0.228460
424.200000,0.226140
424.400000,0.223620
424.600000,0.222840
424.800000,0.220890
425.000000,0.219830
425.200000,0.218830
425.400000,0.216460
425.600000,0.215390
425.800000,0.213260
426.000000,0.210790
426.200000,0.209790
426.400000,0.208310
426.600000,0.207090
426.800000,0.204550
427.000000,0.201790
427.200000,0.200060
427.400000,0.197720
427.600000,0.196110
427.800000,0.194240
428.000000,0.192350
428.200000,0.190030
428.400000,0.189040
428.600000,0.186940
428.800000,0.184900
429.000000,0.183560
429.200000,0.182030
429.400000,0.180610
429.600000,0.179180
429.800000,0.176870
430.000000,0.174960
430.200000,0.173750
430.400000,0.172720
430.600000,0.170240
430.800000,0.168440
431.000000,0.167030
431.200000,0.166100
431.400000,0.165300
431.600000,0.163060
431.800000,0.161130
432.000000,0.159490
432.200000,0.158540
432.400000,0.156970
432.600000,0.155730
432.800000,0.154530
433.000000,0.153420
433.200000,0.151800
433.400000,0.149870
433.600000,0.148720
433.800000,0.146960
434.000000,0.145540
434.200000,0.144720
434.400000,0.144620
434.600000,0.142710
434.800000,0.140680
435.000000,0.139060
435.200000,0.137150
435.400000,0.135280
435.600000,0.134330
435.800000,0.133710
436.000000,0.133050
436.200000,0.132320
436.400000,0.129980
436.600000,0.129120
436.800000,0.127630
437.000000,0.126770
437.200000,0.125510
437.400000,0.124320
437.600000,0.123030
437.800000,0.122010
438.000000,0.120970
438.200000,0.119600
438.400000,0.118390
438.600000,0.117650
438.800000,0.115900
439.000000,0.115110
439.200000,0.114010
439.400000,0.112740
439.600000,0.111770
439.800000,0.111130
440.000000,0.109790
440.200000,0.108320
440.400000,0.107410
440.600000,0.106660
440.800000,0.105630
441.000000,0.104190
441.200000,0.103180
441.400000,0.101740
441.600000,0.100330
441.800000,0.099510
442.000000,0.098600
442.200000,0.098420
442.400000,0.097740
442.600000,0.097070
442.800000,0.095670
443.000000,0.095060
443.200000,0.094670
443.400000,0.093970
443.600000,0.093080
443.800000,0.091730
444.000000,0.090550
444.200000,0.090260
444.400000,0.089400
444.600000,0.088780
444.800000,0.088030
445.000000,0.086390
445.200000,0.085750
445.400000,0.084980
445.600000,0.083730
445.800000,0.083070
446.000000,0.082030
446.200000,0.081770
446.400000,0.080900
446.600000,0.080050
446.800000,0.079210
447.000000,0.078190
447.200000,0.077690
447.400000,0.077370
447.600000,0.076720
447.800000,0.076040
448.000000,0.075420
448.200000,0.075020
448.400000,0.073940
448.600000,0.073660
448.800000,0.073050
449.000000,0.071770
449.200000,0.070970
449.400000,0.070400
449.600000,0.070040
449.800000,0.069460
450.000000,0.069090
450.200000,0.068040
450.400000,0.067470
450.600000,0.067140
450.800000,0.066600
451.000000,0.065910
451.200000,0.065310
451.400000,0.064080
451.600000,0.063740
451.800000,0.062980
452.000000,0.062900
452.200000,0.062620
452.400000,0.061930
452.600000,0.060980
452.800000,0.060380
453.000000,0.059350
453.200000,0.058810
453.400000,0.058500
453.600000,0.058150
453.800000,0.057870
454.000000,0.057620
454.200000,0.057000
454.400000,0.056430
454.600000,0.055760
454.800000,0.055720
455.000000,0.055380
455.200000,0.054670
455.400000,0.053670
455.600000,0.053230
455.800000,0.052930
456.000000,0.052340
456.200000,0.051620
456.400000,0.051310
456.600000,0.050980
456.800000,0.050470
457.000000,0.049760
457.200000,0.048940
457.400000,0.048200
457.600000,0.048050
457.800000,0.047190
458.000000,0.047400
458.200000,0.047260
458.400000,0.046160
458.600000,0.045690
458.800000,0.045300
459.000000,0.045540
459.200000,0.045340
459.400000,0.044620
459.600000,0.044430
459.800000,0.043610
460.000000,0.042970
460.200000,0.042740
460.400000,0.042430
460.600000,0.042220
460.800000,0.041970
461.000000,0.041510
461.200000,0.040700
461.400000,0.040300
461.600000,0.039800
461.800000,0.039450
462.000000,0.039040
462.200000,0.038510
462.400000,0.038000
462.600000,0.037780
462.800000,0.037700
463.000000,0.037390
463.200000,0.036820
463.400000,0.035980
463.600000,0.035620
463.800000,0.035470
464.000000,0.035290
464.200000,0.035110
464.400000,0.034920
464.600000,0.034550
464.800000,0.033900
465.000000,0.033580
465.200000,0.032990
465.400000,0.032720
465.600000,0.032560
465.800000,0.032440
466.000000,0.032070
466.200000,0.031750
466.400000,0.031200
466.600000,0.030820
466.800000,0.030940
467.000000,0.030640
467.200000,0.030210
467.400000,0.029840
467.600000,0.029840
467.800000,0.029660
468.000000,0.029340
468.200000,0.028840
468.400000,0.028630
468.600000,0.028380
468.800000,0.028100
469.000000,0.027900
469.200000,0.027500
469.400000,0.027180
469.600000,0.026870
469.800000,0.026390
470.000000,0.026060
470.200000,0.026090
470.400000,0.025820
470.600000,0.025420
470.800000,0.025110
471.000000,0.024910
471.200000,0.024760
471.400000,0.024580
471.600000,0.024530
471.800000,0.024050
472.000000,0.023940
472.200000,0.023780
472.400000,0.023520
472.600000,0.023540
472.800000,0.023060
473.000000,0.022830
473.200000,0.022420
473.400000,0.022400
473.600000,0.022400
473.800000,0.022120
474.000000,0.022140
474.200000,0.021780
474.400000,0.021630
474.600000,0.021280
474.800000,0.021440
475.000000,0.021230
475.200000,0.020930
475.400000,0.020610
475.600000,0.020240
475.800000,0.020270
476.000000,0.019940
476.200000,0.019760
476.400000,0.019540
476.600000,0.019610
476.800000,0.019650
477.000000,0.019540
477.200000,0.019220
477.400000,0.018900
477.600000,0.018590
477.800000,0.018420
478.000000,0.018160
478.200000,0.018240
478.400000,0.018090
478.600000,0.017700
478.800000,0.017670
479.000000,0.017590
479.200000,0.017790
479.400000,0.017730
479.600000,0.017470
479.800000,0.017180
480.000000,0.017150
480.200000,0.016860
480.400000,0.016480
480.600000,0.016480
480.800000,0.016480
481.000000,0.016510
481.200000,0.016390
481.400000,0.016180
481.600000,0.015800
481.800000,0.015760
482.000000,0.015990
482.200000,0.015870
482.400000,0.015520
482.600000,0.015340
482.800000,0.015290
483.000000,0.015060
483.200000,0.014890
483.400000,0.014790
483.600000,0.014670
483.800000,0.014420
484.000000,0.014160
484.200000,0.014300
484.400000,0.014120
484.600000,0.014150
484.800000,0.014050
485.000000,0.013670
485.200000,0.013750
485.400000,0.013630
485.600000,0.013480
485.800000,0.013270
486.000000,0.013170
486.200000,0.013040
486.400000,0.012910
486.600000,0.012870
486.800000,0.012790
487.000000,0.012720
487.200000,0.012620
487.400000,0.012580
487.600000,0.012560
487.800000,0.012510
488.000000,0.012640
488.200000,0.012340
488.400000,0.012130
488.600000,0.012110
488.800000,0.012130
489.000000,0.012040
489.200000,0.011990
489.400000,0.011990
489.600000,0.011780
489.800000,0.011800
490.000000,0.011630
490.200000,0.011550
490.400000,0.011210
490.600000,0.011130
490.800000,0.011200
491.000000,0.011090
491.200000,0.010940
491.400000,0.010700
491.600000,0.010700
491.800000,0.010740
492.000000,0.010720
492.200000,0.010470
492.400000,0.010450
492.600000,0.010430
492.800000,0.010260
493.000000,0.010270
493.200000,0.010310
493.400000,0.010220
493.600000,0.010240
493.800000,0.010510
494.000000,0.010380
494.200000,0.010170
494.400000,0.009880
494.600000,0.009860
494.800000,0.009950
495.000000,0.009890
495.200000,0.009510
495.400000,0.009630
495.600000,0.009480
495.800000,0.009370
496.000000,0.009290
496.200000,0.009230
496.400000,0.009180
496.600000,0.009160
496.800000,0.009050
497.000000,0.008920
497.200000,0.008900
497.400000,0.008830
497.600000,0.009000
497.800000,0.008950
498.000000,0.008980
498.200000,0.008900
498.400000,0.008860
498.600000,0.008580
498.800000,0.008480
499.000000,0.008330
499.200000,0.008130
499.400000,0.008060
499.600000,0.008010
499.800000,0.008040
500.000000,0.008010
500.200000,0.007950
500.400000,0.008050
500.600000,0.007980
500.800000,0.007870
501.000000,0.007940
501.200000,0.007800
501.400000,0.007860
501.600000,0.007690
501.800000,0.007660
502.000000,0.007570
502.200000,0.007360
502.400000,0.007330
502.600000,0.007250
502.800000,0.007280
503.000000,0.007340
503.200000,0.007180
503.400000,0.006950
503.600000,0.006910
503.800000,0.006990
504.000000,0.007060
504.200000,0.007010
504.400000,0.007000
504.600000,0.007000
504.800000,0.006960
505.000000,0.006930
505.200000,0.006890
505.400000,0.006940
505.600000,0.006870
505.800000,0.006700
506.000000,0.006670
506.200000,0.006490
506.400000,0.006420
506.600000,0.006370
506.800000,0.006310
507.000000,0.006110
507.200000,0.006150
507.400000,0.006210
507.600000,0.006160
507.800000,0.006260
508.000000,0.006220
508.200000,0.006090
508.400000,0.006110
508.600000,0.006080
508.800000,0.006060
509.000000,0.006020
509.200000,0.005980
509.400000,0.006010
509.600000,0.005900
509.800000,0.005960
510.000000,0.005950
510.200000,0.005930
510.400000,0.005960
510.600000,0.005910
510.800000,0.005780
511.000000,0.005790
511.200000,0.005680
511.400000,0.005640
511.600000,0.005650
511.800000,0.005470
512.000000,0.005250
512.200000,0.005130
512.400000,0.005120
512.600000,0.005180
512.800000,0.005210
513.000000,0.005250
513.200000,0.005270
513.400000,0.005320
513.600000,0.005270
513.800000,0.005350
514.000000,0.005190
514.200000,0.005150
514.400000,0.005160
514.600000,0.005240
514.800000,0.005290
515.000000,0.005280
515.200000,0.005250
515.400000,0.005210
515.600000,0.005170
515.800000,0.004900
516.000000,0.004820
516.200000,0.004770
516.400000,0.004690
516.600000,0.004800
516.800000,0.004680
517.000000,0.004660
517.200000,0.004650
517.400000,0.004640
517.600000,0.004640
517.800000,0.004720
518.000000,0.004650
518.200000,0.004640
518.400000,0.004540
518.600000,0.004630
518.800000,0.004510
519.000000,0.004470
519.200000,0.004580
519.400000,0.004430
519.600000,0.004410
519.800000,0.004430
520.000000,0.004440
520.200000,0.004540
520.400000,0.004440
520.600000,0.004290
520.800000,0.004280
521.000000,0.004290
521.200000,0.004230
521.400000,0.004140
521.600000,0.004290
521.800000,0.004280
522.000000,0.004140
522.200000,0.004000
522.400000,0.003970
522.600000,0.003970
522.800000,0.003970
523.000000,0.004010
523.200000,0.004060
523.400000,0.004130
523.600000,0.003990
523.800000,0.004000
524.000000,0.003780
524.200000,0.003750
524.400000,0.003930
524.600000,0.003920
524.800000,0.003730
525.000000,0.003680
