wavelength_nm,n,k
300.000300,2.052480,0.242630
301.100860,2.063170,0.238930
302.201400,2.071570,0.231100
303.301940,2.076780,0.220450
304.402500,2.078510,0.208340
305.503050,2.076930,0.195960
306.603600,2.072490,0.184180
307.704160,2.065780,0.173620
308.804700,2.057360,0.164630
309.905240,2.047770,0.157400
311.005800,2.037500,0.152010
312.106350,2.026950,0.148460
313.206900,2.016490,0.146710
314.307460,2.006480,0.146700
315.408000,1.997280,0.148320
316.508540,1.989230,0.151410
317.609100,1.982700,0.155710
318.709660,1.978010,0.160860
319.810200,1.975420,0.166370
320.910740,1.975020,0.171610
322.011300,1.976690,0.175890
323.111850,1.980030,0.178580
324.212400,1.984370,0.179200
325.312960,1.988900,0.177580
326.413500,1.992800,0.173910
327.514040,1.995420,0.168640
328.614600,1.996330,0.162440
329.715150,1.995390,0.156040
330.815700,1.992700,0.150130
331.916260,1.988530,0.145340
333.016800,1.983340,0.142240
334.117340,1.977750,0.141290
335.217900,1.972630,0.142850
336.318450,1.969220,0.147020
337.419000,1.969060,0.153270
338.519560,1.973680,0.159990
339.620100,1.983570,0.164270
340.720640,1.997000,0.162990
341.821200,2.010220,0.154800
342.921750,2.019620,0.141280
344.022300,2.023770,0.125520
345.122860,2.023270,0.110110
346.223420,2.019520,0.096420
347.323970,2.013840,0.084820
348.424500,2.007180,0.075190
349.525050,2.000130,0.067240
350.625600,1.993020,0.060640
351.726170,1.986050,0.055130
352.826720,1.979300,0.050480
353.927250,1.972810,0.046520
355.027800,1.966610,0.043110
356.128360,1.960680,0.040150
357.228900,1.955010,0.037550
358.329470,1.949590,0.035260
359.430020,1.944410,0.033220
360.530550,1.939450,0.031400
361.631100,1.934690,0.029760
362.731660,1.930120,0.028270
363.832200,1.925720,0.026920
364.932770,1.921490,0.025680
366.033330,1.917410,0.024550
367.133850,1.913480,0.023510
368.234400,1.909680,0.022550
369.334960,1.906000,0.021660
370.435520,1.902450,0.020830
371.536070,1.899000,0.020060
372.636600,1.895660,0.019340
373.737150,1.892420,0.018670
374.837700,1.889280,0.018040
375.938260,1.886220,0.017450
377.038820,1.883250,0.016890
378.139370,1.880360,0.016360
379.239900,1.877550,0.015870
380.340450,1.874810,0.015400
381.441000,1.872140,0.014950
382.541560,1.869530,0.014530
383.642120,1.866990,0.014130
384.742650,1.864510,0.013750
385.843200,1.862100,0.013390
386.943760,1.859730,0.013040
388.044300,1.857420,0.012720
389.144870,1.855170,0.012400
390.245420,1.852960,0.012100
391.345950,1.850800,0.011820
392.446500,1.848690,0.011540
393.547060,1.846620,0.011280
394.647600,1.844600,0.011020
395.748170,1.842620,0.010780
396.848720,1.840680,0.010550
397.949250,1.838770,0.010330
399.049800,1.836910,0.010110
400.150360,1.835080,0.009900
401.250920,1.833290,0.009710
402.351470,1.831530,0.009510
403.452000,1.829800,0.009330
404.552550,1.828110,0.009150
405.653100,1.826450,0.008980
406.753660,1.824820,0.008810
407.854220,1.823210,0.008650
408.954770,1.821640,0.008490
410.055300,1.820100,0.008340
411.155850,1.818580,0.008200
412.256400,1.817080,0.008060
413.356960,1.815620,0.007920
414.457520,1.814180,0.007790
415.558070,1.812760,0.007660
416.658600,1.811360,0.007540
417.759160,1.809990,0.007420
418.859700,1.808640,0.007300
419.960270,1.807320,0.007190
421.060820,1.806010,0.007080
422.161350,1.804720,0.006970
423.261900,1.803460,0.006860
424.362460,1.802210,0.006760
425.463000,1.800990,0.006660
426.563570,1.799780,0.006570
427.664120,1.798590,0.006470
428.764650,1.797420,0.006380
429.865200,1.796270,0.006290
430.965760,1.795130,0.006210
432.066300,1.794010,0.006120
433.166870,1.792910,0.006040
434.267430,1.791820,0.005960
435.367980,1.790750,0.005880
436.468500,1.789700,0.005810
437.569060,1.788650,0.005730
438.669620,1.787630,0.005660
439.770170,1.786620,0.005590
440.870730,1.785620,0.005520
441.971280,1.784630,0.005450
443.071800,1.783660,0.005390
444.172360,1.782700,0.005320
445.272920,1.781760,0.005260
446.373470,1.780830,0.005200
447.474030,1.779910,0.005140
448.574600,1.779000,0.005080
449.675100,1.778100,0.005020
450.775670,1.777220,0.004970
451.876220,1.776350,0.004910
452.976780,1.775490,0.004860
454.077330,1.774640,0.004800
455.177860,1.773800,0.004750
456.278400,1.772970,0.004700
457.378970,1.772150,0.004650
458.479520,1.771340,0.004600
459.580080,1.770540,0.004560
460.680630,1.769750,0.004510
461.781160,1.768970,0.004460
462.881700,1.768200,0.004420
463.982270,1.767440,0.004370
465.082820,1.766690,0.004330
466.183380,1.765950,0.004290
467.283900,1.765220,0.004250
468.384460,1.764490,0.004210
469.485020,1.763780,0.004170
470.585570,1.763070,0.004130
471.686130,1.762370,0.004090
472.786680,1.761680,0.004050
473.887200,1.761000,0.004010
474.987760,1.760320,0.003980
476.088320,1.759650,0.003940
477.188870,1.758990,0.003900
478.289430,1.758340,0.003870
479.389980,1.757690,0.003840
480.490500,1.757050,0.003800
481.591060,1.756420,0.003770
482.691620,1.755800,0.003740
483.792180,1.755180,0.003700
484.892730,1.754570,0.003670
485.993260,1.753970,0.003640
487.093800,1.753370,0.003610
488.194370,1.752780,0.003580
489.294920,1.752190,0.003550
490.395480,1.751610,0.003520
491.496030,1.751040,0.003500
492.596560,1.750470,0.003470
493.697100,1.749910,0.003440
494.797670,1.749360,0.003410
495.898220,1.748810,0.003390
496.998780,1.748270,0.003360
498.099330,1.747730,0.003330
499.199860,1.747200,0.003310
500.300400,1.746670,0.003280
501.400970,1.746150,0.003260
502.501530,1.745630,0.003230
503.602080,1.745120,0.003210
504.702600,1.744610,0.003190
505.803160,1.744110,0.003160
506.903720,1.743620,0.003140
508.004270,1.743130,0.003120
509.104830,1.742640,0.003100
510.205380,1.742160,0.003070
511.305900,1.741680,0.003050
512.406500,1.741210,0.003030
513.507000,1.740740,0.003010
514.607540,1.740280,0.002990
515.708100,1.739820,0.002970
516.808650,1.739360,0.002950
517.909240,1.738910,0.002930
519.009770,1.738470,0.002910
520.110350,1.738030,0.002890
521.210900,1.737590,0.002870
522.311400,1.737160,0.002850
523.412000,1.736730,0.002830
524.512500,1.736300,0.002810
525.613100,1.735880,0.002800
526.713600,1.735460,0.002780
527.814200,1.735050,0.002760
528.914730,1.734640,0.002740
530.015260,1.734230,0.002730
531.115840,1.733830,0.002710
532.216400,1.733430,0.002690
533.316960,1.733030,0.002680
534.417500,1.732640,0.002660
535.518000,1.732250,0.002640
536.618600,1.731870,0.002630
537.719100,1.731490,0.002610
538.819700,1.731110,0.002600
539.920200,1.730730,0.002580
541.020750,1.730360,0.002560
542.121340,1.729990,0.002550
543.221860,1.729630,0.002530
544.322450,1.729270,0.002520
545.423000,1.728910,0.002510
546.523560,1.728550,0.002490
547.624100,1.728200,0.002480
548.724600,1.727850,0.002460
549.825200,1.727500,0.002450
550.925700,1.727160,0.002440
552.026300,1.726820,0.002420
553.126830,1.726480,0.002410
554.227360,1.726140,0.002390
555.327940,1.725810,0.002380
556.428470,1.725480,0.002370
557.529050,1.725150,0.002360
558.629600,1.724830,0.002340
559.730100,1.724510,0.002330
560.830700,1.724190,0.002320
561.931200,1.723870,0.002310
563.031800,1.723560,0.002290
564.132300,1.723250,0.002280
565.232900,1.722940,0.002270
566.333440,1.722630,0.002260
567.433960,1.722330,0.002250
568.534550,1.722030,0.002240
569.635100,1.721730,0.002220
570.735660,1.721430,0.002210
571.836200,1.721140,0.002200
572.936700,1.720840,0.002190
574.037300,1.720550,0.002180
575.137800,1.720270,0.002170
576.238400,1.719980,0.002160
577.338900,1.719700,0.002150
578.439450,1.719420,0.002140
579.540040,1.719140,0.002130
580.640560,1.718860,0.002120
581.741150,1.718590,0.002110
582.841700,1.718310,0.002100
583.942200,1.718040,0.002090
585.042800,1.717780,0.002080
586.143300,1.717510,0.002070
587.243900,1.717240,0.002060
588.344400,1.716980,0.002050
589.445000,1.716720,0.002040
590.545530,1.716460,0.002030
591.646060,1.716210,0.002020
592.746640,1.715950,0.002010
593.847170,1.715700,0.002000
594.947750,1.715450,0.001990
596.048300,1.715200,0.001980
597.148800,1.714950,0.001970
598.249400,1.714710,0.001970
599.349900,1.714460,0.001960
600.450500,1.714220,0.001950
601.551000,1.713980,0.001940
602.651550,1.713740,0.001930
603.752140,1.713510,0.001920
604.852660,1.713270,0.001910
605.953250,1.713040,0.001910
607.053800,1.712810,0.001900
608.154360,1.712580,0.001890
609.254900,1.712350,0.001880
610.355470,1.712120,0.001870
611.456000,1.711900,0.001870
612.556500,1.711680,0.001860
613.657100,1.711450,0.001850
614.757600,1.711230,0.001840
615.858200,1.711020,0.001830
616.958740,1.710800,0.001830
618.059270,1.710580,0.001820
619.159850,1.710370,0.001810
620.260400,1.710160,0.001800
621.360960,1.709940,0.001800
622.461500,1.709730,0.001790
623.562000,1.709530,0.001780
624.662600,1.709320,0.001780
625.763100,1.709110,0.001770
626.863700,1.708910,0.001760
627.964230,1.708710,0.001760
629.064800,1.708500,0.001750
630.165340,1.708300,0.001740
631.265870,1.708110,0.001730
632.366460,1.707910,0.001730
633.467000,1.707710,0.001720
634.567570,1.707520,0.001710
635.668100,1.707320,0.001710
636.768600,1.707130,0.001700
637.869200,1.706940,0.001700
638.969700,1.706750,0.001690
640.070300,1.706560,0.001680
641.170840,1.706380,0.001680
642.271360,1.706190,0.001670
643.371950,1.706010,0.001660
644.472500,1.705820,0.001660
645.573060,1.705640,0.001650
646.673600,1.705460,0.001650
647.774200,1.705280,0.001640
648.874700,1.705100,0.001630
649.975200,1.704920,0.001630
651.075800,1.704750,0.001620
652.176330,1.704570,0.001620
653.276900,1.704400,0.001610
654.377440,1.704220,0.001600
655.477970,1.704050,0.001600
656.578550,1.703880,0.001590
657.679100,1.703710,0.001590
658.779660,1.703540,0.001580
659.880200,1.703370,0.001580
660.980700,1.703210,0.001570
662.081300,1.703040,0.001570
663.181800,1.702880,0.001560
664.282400,1.702710,0.001550
665.382930,1.702550,0.001550
666.483500,1.702390,0.001540
667.584050,1.702230,0.001540
668.684600,1.702070,0.001530
669.785160,1.701910,0.001530
670.885700,1.701750,0.001520
671.986270,1.701590,0.001520
673.086800,1.701440,0.001510
674.187300,1.701280,0.001510
675.287900,1.701130,0.001500
676.388400,1.700980,0.001500
677.489000,1.700820,0.001490
678.589540,1.700670,0.001490
679.690060,1.700520,0.001480
680.790650,1.700370,0.001480
681.891200,1.700230,0.001470
682.991760,1.700080,0.001470
684.092300,1.699930,0.001460
685.192800,1.699790,0.001460
686.293400,1.699640,0.001460
687.393900,1.699500,0.001450
688.494500,1.699350,0.001450
689.595030,1.699210,0.001440
690.695600,1.699070,0.001440
691.796140,1.698930,0.001430
692.896670,1.698790,0.001430
693.997250,1.698650,0.001420
695.097800,1.698510,0.001420
696.198360,1.698370,0.001410
697.298900,1.698240,0.001410
698.399500,1.698100,0.001410
699.500000,1.697970,0.001400
700.600500,1.697830,0.001400
701.701100,1.697700,0.001390
702.801640,1.697570,0.001390
703.902200,1.697430,0.001380
705.002750,1.697300,0.001380
706.103300,1.697170,0.001380
707.203860,1.697040,0.001370
708.304400,1.696910,0.001370
709.404970,1.696780,0.001360
710.505500,1.696660,0.001360
711.606100,1.696530,0.001360
712.706600,1.696400,0.001350
713.807100,1.696280,0.001350
714.907700,1.696150,0.001340
716.008240,1.696030,0.001340
717.108800,1.695910,0.001340
718.209350,1.695780,0.001330
719.309900,1.695660,0.001330
720.410460,1.695540,0.001330
721.511000,1.695420,0.001320
722.611600,1.695300,0.001320
723.712100,1.695180,0.001310
724.812600,1.695060,0.001310
725.913200,1.694940,0.001310
727.013730,1.694820,0.001300
728.114300,1.694710,0.001300
729.214840,1.694590,0.001300
730.315400,1.694480,0.001290
731.415950,1.694360,0.001290
732.516500,1.694250,0.001280
733.617070,1.694130,0.001280
734.717600,1.694020,0.001280
735.818200,1.693910,0.001270
736.918700,1.693800,0.001270
738.019200,1.693680,0.001270
739.119800,1.693570,0.001260
740.220340,1.693460,0.001260
741.320900,1.693350,0.001260
742.421450,1.693250,0.001250
743.522000,1.693140,0.001250
744.622560,1.693030,0.001250
745.723100,1.692920,0.001240
746.823670,1.692820,0.001240
747.924200,1.692710,0.001240
749.024800,1.692600,0.001230
750.125300,1.692500,0.001230
751.225800,1.692390,0.001230
752.326400,1.692290,0.001220
753.426940,1.692190,0.001220
754.527500,1.692080,0.001220
755.628050,1.691980,0.001210
756.728600,1.691880,0.001210
757.829160,1.691780,0.001210
758.929700,1.691680,0.001210
760.030300,1.691580,0.001200
761.130800,1.691480,0.001200
762.231300,1.691380,0.001200
763.331900,1.691280,0.001190
764.432430,1.691180,0.001190
765.533000,1.691090,0.001190
766.633540,1.690990,0.001180
767.734100,1.690890,0.001180
768.834660,1.690800,0.001180
769.935200,1.690700,0.001180
771.035770,1.690600,0.001170
772.136300,1.690510,0.001170
773.236900,1.690420,0.001170
774.337400,1.690320,0.001160
775.437900,1.690230,0.001160
776.538500,1.690140,0.001160
777.639040,1.690040,0.001160
778.739600,1.689950,0.001150
779.840150,1.689860,0.001150
780.940700,1.689770,0.001150
782.041260,1.689680,0.001140
783.141800,1.689590,0.001140
784.242400,1.689500,0.001140
785.342900,1.689410,0.001140
786.443500,1.689320,0.001130
787.544000,1.689230,0.001130
788.644530,1.689140,0.001130
789.745100,1.689060,0.001120
790.845640,1.688970,0.001120
791.946200,1.688880,0.001120
793.046750,1.688800,0.001120
794.147340,1.688710,0.001110
795.247860,1.688630,0.001110
796.348400,1.688540,0.001110
797.449000,1.688460,0.001110
798.549500,1.688370,0.001100
799.650100,1.688290,0.001100
800.750600,1.688200,0.001100
801.851140,1.688120,0.001100
802.951700,1.688040,0.001090
804.052250,1.687960,0.001090
805.152830,1.687870,0.001090
806.253360,1.687790,0.001090
807.353900,1.687710,0.001080
808.454470,1.687630,0.001080
809.555000,1.687550,0.001080
810.655600,1.687470,0.001080
811.756100,1.687390,0.001070
812.856700,1.687310,0.001070
813.957200,1.687230,0.001070
815.057740,1.687160,0.001070
816.158300,1.687080,0.001060
817.258850,1.687000,0.001060
818.359440,1.686920,0.001060
819.459960,1.686850,0.001060
820.560500,1.686770,0.001060
821.661100,1.686690,0.001050
822.761600,1.686620,0.001050
823.862200,1.686540,0.001050
824.962700,1.686470,0.001050
826.063230,1.686390,0.001040
827.163800,1.686320,0.001040
828.264340,1.686240,0.001040
829.364900,1.686170,0.001040
830.465450,1.686090,0.001030
831.566040,1.686020,0.001030
832.666560,1.685950,0.001030
833.767100,1.685880,0.001030
834.867700,1.685800,0.001030
835.968200,1.685730,0.001020
837.068800,1.685660,0.001020
838.169300,1.685590,0.001020
839.269840,1.685520,0.001020
840.370400,1.685450,0.001020
841.470950,1.685380,0.001010
842.571530,1.685310,0.001010
843.672060,1.685240,0.001010
844.772600,1.685170,0.001010
845.873170,1.685100,0.001000
846.973700,1.685030,0.001000
848.074300,1.684960,0.001000
849.174800,1.684890,0.001000
850.275300,1.684830,0.001000
851.375900,1.684760,0.000990
852.476440,1.684690,0.000990
853.577000,1.684630,0.000990
854.677550,1.684560,0.000990
855.778140,1.684490,0.000990
856.878660,1.684430,0.000980
857.979200,1.684360,0.000980
859.079800,1.684300,0.000980
860.180300,1.684230,0.000980
861.280900,1.684170,0.000980
862.381400,1.684100,0.000970
863.481930,1.684040,0.000970
864.582500,1.683970,0.000970
865.683040,1.683910,0.000970
866.783600,1.683850,0.000970
867.884160,1.683780,0.000960
868.984700,1.683720,0.000960
870.085270,1.683660,0.000960
871.185800,1.683590,0.000960
872.286400,1.683530,0.000960
873.386900,1.683470,0.000960
874.487500,1.683410,0.000950
875.588000,1.683350,0.000950
876.688600,1.683290,0.000950
877.789100,1.683230,0.000950
878.889650,1.683160,0.000950
879.990230,1.683100,0.000940
881.090760,1.683040,0.000940
882.191350,1.682980,0.000940
883.291900,1.682930,0.000940
884.392400,1.682870,0.000940
885.493000,1.682810,0.000940
886.593500,1.682750,0.000930
887.694100,1.682690,0.000930
888.794600,1.682630,0.000930
889.895140,1.682570,0.000930
890.995700,1.682520,0.000930
892.096250,1.682460,0.000920
893.196840,1.682400,0.000920
894.297360,1.682340,0.000920
895.397950,1.682290,0.000920
896.498500,1.682230,0.000920
897.599000,1.682170,0.000920
898.699600,1.682120,0.000910
899.800100,1.682060,0.000910
900.900700,1.682010,0.000910
902.001200,1.681950,0.000910
903.101750,1.681900,0.000910
904.202330,1.681840,0.000910
905.302860,1.681790,0.000900
906.403440,1.681730,0.000900
907.503970,1.681680,0.000900
908.604500,1.681620,0.000900
909.705100,1.681570,0.000900
910.805600,1.681510,0.000900
911.906200,1.681460,0.000890
913.006700,1.681410,0.000890
914.107300,1.681360,0.000890
915.207800,1.681300,0.000890
916.308350,1.681250,0.000890
917.408940,1.681200,0.000890
918.509460,1.681150,0.000880
919.610050,1.681090,0.000880
920.710600,1.681040,0.000880
921.811100,1.680990,0.000880
922.911700,1.680940,0.000880
924.012200,1.680890,0.000880
925.112800,1.680840,0.000880
926.213300,1.680790,0.000870
927.313840,1.680740,0.000870
928.414400,1.680680,0.000870
929.514950,1.680630,0.000870
930.615540,1.680580,0.000870
931.716060,1.680540,0.000870
932.816650,1.680490,0.000860
933.917200,1.680440,0.000860
935.017700,1.680390,0.000860
936.118300,1.680340,0.000860
937.218800,1.680290,0.000860
938.319400,1.680240,0.000860
939.419900,1.680190,0.000860
940.520450,1.680140,0.000850
941.621030,1.680100,0.000850
942.721560,1.680050,0.000850
943.822140,1.680000,0.000850
944.922670,1.679950,0.000850
946.023200,1.679910,0.000850
947.123800,1.679860,0.000850
948.224300,1.679810,0.000840
949.324900,1.679770,0.000840
950.425400,1.679720,0.000840
951.525940,1.679670,0.000840
952.626500,1.679630,0.000840
953.727050,1.679580,0.000840
954.827640,1.679530,0.000840
955.928160,1.679490,0.000830
957.028750,1.679440,0.000830
958.129300,1.679400,0.000830
959.229800,1.679350,0.000830
960.330400,1.679310,0.000830
961.430900,1.679260,0.000830
962.531500,1.679220,0.000830
963.632000,1.679170,0.000820
964.732600,1.679130,0.000820
965.833100,1.679090,0.000820
966.933650,1.679040,0.000820
968.034240,1.679000,0.000820
969.134770,1.678950,0.000820
970.235350,1.678910,0.000820
971.335900,1.678870,0.000820
972.436400,1.678820,0.000810
973.537000,1.678780,0.000810
974.637500,1.678740,0.000810
975.738100,1.678700,0.000810
976.838600,1.678650,0.000810
977.939200,1.678610,0.000810
979.039730,1.678570,0.000810
980.140260,1.678530,0.000810
981.240840,1.678480,0.000800
982.341400,1.678440,0.000800
983.441960,1.678400,0.000800
984.542500,1.678360,0.000800
985.643000,1.678320,0.000800
986.743600,1.678280,0.000800
987.844100,1.678240,0.000800
988.944700,1.678200,0.000790
990.045200,1.678160,0.000790
991.145750,1.678110,0.000790
992.246340,1.678070,0.000790
993.346860,1.678030,0.000790
994.447450,1.677990,0.000790
995.548000,1.677950,0.000790
996.648560,1.677910,0.000790
997.749100,1.677870,0.000790
998.849600,1.677840,0.000780
999.950200,1.677800,0.000780
1001.050700,1.677760,0.000780
1002.151300,1.677720,0.000780
1003.251830,1.677680,0.000780
1004.352360,1.677640,0.000780
1005.452940,1.677600,0.000780
1006.553470,1.677560,0.000780
1007.654050,1.677520,0.000770
1008.754600,1.677490,0.000770
1009.855100,1.677450,0.000770
1010.955700,1.677410,0.000770
1012.056200,1.677370,0.000770
1013.156800,1.677330,0.000770
1014.257300,1.677300,0.000770
1015.357900,1.677260,0.000770
1016.458440,1.677220,0.000760
1017.558960,1.677190,0.000760
1018.659550,1.677150,0.000760
1019.760100,1.677110,0.000760
1020.860660,1.677070,0.000760
1021.961200,1.677040,0.000760
1023.061700,1.677000,0.000760
1024.162200,1.676970,0.000760
1025.262800,1.676930,0.000760
1026.363400,1.676890,0.000750
1027.464000,1.676860,0.000750
1028.564500,1.676820,0.000750
1029.665000,1.676790,0.000750
1030.765600,1.676750,0.000750
